#F
# Sample c=  5.77 mg/ml
#S 1 Scan File
# Image =  1 
# Dim_1 =  1280 
# Dummy = -2.000000e+00 
# DDummy =  1.000000e-01 
# SampleDistance =  2.425000e+00 
# WaveLength =  9.310000e-11 
# Title = DiodeCurr=2.04445e-05, MachCurr=85.6367 mA, Concentration=5.77, Comments: bsa2, Code: BSA, Mask: /data/id14eh3/archive/CALIBRATION/MASK/Pcon_01Apr_msk.edf, Normalisation: 1.0 
# History-1 = saxs_mac +var +pass -omod n -i1err _i1val -i1dum -2 -otit "DiodeCurr=2.04445e-05, MachCurr=85.6367 mA, Concentration=5.77, Comments: bsa2, Code: BSA, Mask: /data/id14eh3/archive/CALIBRATION/MASK/Pcon_01Apr_msk.edf, Normalisation: 1.0" -i1dis 2.425 -i1wvl 0.0931_nm -i1pix 172.0_um 172.0_um -i1cen 871 105 -ofac 48912.9105627 /data/id14eh3/inhouse/saxs_pilatus/Mats/100512/raw/IHLS861_013_01.edf /data/id14eh3/inhouse/saxs_pilatus/Mats/100512/2d/IHLS861_013_01.edf 
# History-2 = saxs_add -omod n /data/id14eh3/inhouse/saxs_pilatus/Mats/100512/2d/IHLS861_013_01.edf /data/id14eh3/archive/CALIBRATION/MASK/Pcon_01Apr_msk.edf /data/id14eh3/inhouse/saxs_pilatus/Mats/100512/misc/IHLS861_013_01.msk 
# History-3 = saxs_angle -omod n -rsys normal -da 360_deg -odim = 1 /data/id14eh3/inhouse/saxs_pilatus/Mats/100512/misc/IHLS861_013_01.msk /data/id14eh3/inhouse/saxs_pilatus/Mats/100512/misc/IHLS861_013_01.ang 
# History-4 = saxs_curves -scf 2_pi -ext .dat -spc "  " /data/id14eh3/inhouse/saxs_pilatus/Mats/100512/misc/IHLS861_013_01.ang /data/id14eh3/inhouse/saxs_pilatus/Mats/100512/1d/IHLS861_013_01.dat 
# 
# 
# 
# 
# 
# 
# 
# 
# 
# 
# 
# 
#L q*nm  I_DiodeCurr=2.04445e-05,  stdde
#N 3 
#
#
#Normalisation: 1.0
#Concentration: 5.77
#Code: BSA
0.0406879  155455000.0  1064270.0 
0.0454748  260328000.0  921348.0 
0.0502616  136380000.0  408101.0 
0.0550484  81109900.0  279572.0 
0.0598352  60985100.0  229649.0 
0.064622  52351800.0  191749.0 
0.0694088  44578700.0  169103.0 
0.0741956  38972200.0  148880.0 
0.0789825  35104900.0  136066.0 
0.0837693  31979700.0  125218.0 
0.0885561  29741900.0  117089.0 
0.0933429  27785700.0  110075.0 
0.0981297  26435000.0  104525.0 
0.102917  25303900.0  99242.4 
0.107703  24191900.0  94573.5 
0.11249  23439400.0  90761.4 
0.117277  22967500.0  87647.9 
0.122064  22374400.0  84852.9 
0.126851  21896600.0  82256.2 
0.131637  21505500.0  79898.8 
0.136424  21046400.0  77593.5 
0.141211  20783800.0  75681.2 
0.145998  20462400.0  73879.4 
0.150784  20274700.0  72260.3 
0.155571  19995500.0  70620.0 
0.160358  19973700.0  69515.2 
0.165145  19718400.0  67934.5 
0.169932  19477600.0  66565.8 
0.174718  19323500.0  65372.6 
0.179505  19234400.0  64316.5 
0.184292  19057100.0  63082.4 
0.189079  18847100.0  61985.6 
0.193866  18721000.0  60979.7 
0.198652  18677800.0  60121.2 
0.203439  18522400.0  59149.9 
0.208226  18349700.0  58149.0 
0.213013  18275600.0  57396.4 
0.217799  18108900.0  56457.7 
0.222586  17966800.0  55620.7 
0.227373  17752200.0  54705.1 
0.23216  17679800.0  53959.5 
0.236946  17608800.0  53322.0 
0.241733  17517700.0  52649.3 
0.24652  17332800.0  51843.3 
0.251307  17254700.0  51178.1 
0.256093  17161200.0  50599.6 
0.26088  17001300.0  49880.3 
0.265667  16905800.0  49263.9 
0.270454  16775500.0  48643.1 
0.27524  16667300.0  48031.0 
0.280027  16490300.0  47377.7 
0.284814  16434400.0  46874.3 
0.2896  16276800.0  46317.0 
0.294387  16115200.0  45702.2 
0.299174  15974100.0  45097.4 
0.303961  15871900.0  44589.5 
0.308747  15791700.0  44156.2 
0.313534  15662600.0  43627.5 
0.318321  15521100.0  43067.9 
0.323107  15354400.0  42505.8 
0.327894  15324100.0  42154.0 
0.332681  15185800.0  41675.6 
0.337467  15051900.0  41189.8 
0.342254  14911000.0  40703.3 
0.347041  14729700.0  40148.2 
0.351828  14669900.0  39834.5 
0.356614  14546400.0  39386.9 
0.361401  14351200.0  38840.1 
0.366188  14202000.0  38356.2 
0.370974  14150800.0  38036.3 
0.375761  13971600.0  37571.4 
0.380547  13817200.0  37121.3 
0.385334  13680900.0  36735.6 
0.390121  13567600.0  37073.7 
0.394907  13430200.0  37149.1 
0.399694  13288000.0  37089.8 
0.404481  13144400.0  36946.6 
0.409267  12975200.0  36679.0 
0.414054  12859800.0  36517.9 
0.418841  12704100.0  36268.4 
0.423627  12621800.0  36141.7 
0.428414  12504100.0  35937.6 
0.4332  12405200.0  36553.9 
0.437987  12264700.0  36824.3 
0.442774  12139200.0  36959.6 
0.44756  12059100.0  37149.0 
0.452347  11964900.0  37227.6 
0.457133  11729300.0  37027.1 
0.46192  11570100.0  37037.2 
0.466706  11452500.0  37190.2 
0.471493  11292300.0  37187.7 
0.47628  11166800.0  37181.9 
0.481066  11034500.0  37149.8 
0.485853  10936400.0  37198.4 
0.490639  10815300.0  37162.1 
0.495426  10670000.0  37041.5 
0.500212  10601400.0  36978.0 
0.504999  10438000.0  37996.5 
0.509785  10333900.0  38326.8 
0.514572  10308400.0  38104.3 
0.519358  10154700.0  37386.2 
0.524145  9997630.0  37122.4 
0.528931  9868620.0  37581.3 
0.533718  9708200.0  37979.4 
0.538504  9570910.0  38266.9 
0.543291  9423200.0  38531.5 
0.548077  9294690.0  38736.1 
0.552864  9206280.0  39068.6 
0.55765  9112260.0  39391.3 
0.562436  9006080.0  39665.6 
0.567223  8814800.0  39671.8 
0.572009  8717130.0  39971.0 
0.576796  8588560.0  40188.3 
0.581582  8504340.0  40349.2 
0.586369  8385620.0  40435.7 
0.591155  8280600.0  40550.6 
0.595941  8164030.0  40722.9 
0.600728  8003750.0  40846.1 
0.605514  7936360.0  41062.6 
0.610301  7855820.0  41076.8 
0.615087  7651700.0  40849.8 
0.619873  7554680.0  40725.7 
0.62466  7505770.0  40886.6 
0.629446  7368570.0  40889.7 
0.634232  7265680.0  40628.7 
0.639019  7218330.0  40942.2 
0.643805  7150030.0  40866.5 
0.648591  7044480.0  40746.5 
0.653378  6874360.0  40457.0 
0.658164  6765590.0  40298.9 
0.66295  6680150.0  40274.1 
0.667737  6580380.0  40257.0 
0.672523  6497450.0  40018.3 
0.677309  6376910.0  39812.4 
0.682095  6268630.0  39930.6 
0.686882  6215460.0  39988.4 
0.691668  6159880.0  39851.4 
0.696454  6040520.0  39586.8 
0.70124  6017160.0  39787.5 
0.706027  5911620.0  39475.6 
0.710813  5766700.0  38933.1 
0.715599  5667920.0  38508.0 
0.720385  5606890.0  38311.7 
0.725172  5515400.0  37889.9 
0.729958  5490370.0  37809.1 
0.734744  5383780.0  37394.0 
0.73953  5361150.0  37277.7 
0.744316  5278710.0  37009.5 
0.749102  5183320.0  36513.6 
0.753889  5047420.0  36093.7 
0.758675  5008870.0  35806.7 
0.763461  4925210.0  35484.1 
0.768247  4836720.0  35152.4 
0.773033  4741220.0  34742.4 
0.777819  4762660.0  34890.9 
0.782605  4704500.0  34555.7 
0.787391  4615080.0  34185.6 
0.792177  4607370.0  34132.8 
0.796964  4516120.0  33789.1 
0.80175  4439490.0  33445.0 
0.806536  4377310.0  33136.9 
0.811322  4281890.0  32812.8 
0.816108  4265210.0  32587.2 
0.820894  4219020.0  32416.7 
0.82568  4159040.0  32152.7 
0.830466  4074970.0  31829.5 
0.835252  4052090.0  31698.9 
0.840038  3954280.0  31262.5 
0.844824  3862160.0  30818.2 
0.84961  3788590.0  30550.8 
0.854396  3803540.0  30566.0 
0.859182  3804300.0  30533.1 
0.863968  3750340.0  30330.6 
0.868754  3671690.0  29939.2 
0.873539  3601820.0  29654.4 
0.878325  3557810.0  29414.1 
0.883111  3497750.0  29092.3 
0.887897  3489080.0  29033.5 
0.892683  3465970.0  28933.8 
0.897469  3400790.0  28618.5 
0.902255  3361000.0  28444.8 
0.907041  3294340.0  28138.9 
0.911826  3278940.0  28065.0 
0.916612  3228090.0  27756.8 
0.921398  3206650.0  27653.8 
0.926184  3148560.0  27309.9 
0.93097  3114880.0  27209.3 
0.935755  3101950.0  27178.3 
0.940541  3059470.0  26897.4 
0.945327  2995850.0  26603.1 
0.950113  3017710.0  26690.1 
0.954898  2936870.0  26295.5 
0.959684  2923650.0  26188.7 
0.96447  2879930.0  25918.1 
0.969256  2830780.0  25719.1 
0.974041  2846420.0  25792.0 
0.978827  2801220.0  25513.2 
0.983613  2751600.0  25303.1 
0.988398  2740230.0  25233.0 
0.993184  2650550.0  24782.1 
0.99797  2662900.0  24774.5 
1.00276  2634270.0  24607.9 
1.00754  2597520.0  24416.5 
1.01233  2586830.0  24392.8 
1.01711  2538380.0  24112.2 
1.0219  2558730.0  24176.3 
1.02668  2492130.0  23845.1 
1.03147  2457800.0  23718.2 
1.03625  2439570.0  23537.2 
1.04104  2439800.0  23535.0 
1.04583  2441220.0  23481.0 
1.05061  2367530.0  23136.0 
1.0554  2359990.0  23098.5 
1.06018  2336410.0  22967.9 
1.06497  2352650.0  22972.7 
1.06975  2312080.0  22767.5 
1.07454  2299870.0  22683.3 
1.07932  2280310.0  22576.3 
1.08411  2255300.0  22419.6 
1.08889  2248980.0  22300.1 
1.09368  2259770.0  22377.7 
1.09847  2212370.0  22105.9 
1.10325  2197340.0  22013.9 
1.10804  2195770.0  21937.2 
1.11282  2193340.0  21863.4 
1.11761  2165540.0  21764.1 
1.12239  2160000.0  21648.5 
1.12718  2119640.0  21445.5 
1.13196  2076590.0  21217.4 
1.13675  2095760.0  21249.2 
1.14153  2085540.0  21194.4 
1.14632  2074510.0  21052.1 
1.1511  2049230.0  20903.3 
1.15589  2041400.0  20855.8 
1.16067  2019610.0  20689.3 
1.16546  2043360.0  20814.1 
1.17025  2034960.0  20721.7 
1.17503  1978250.0  20399.4 
1.17982  1999550.0  20487.9 
1.1846  2012580.0  20516.7 
1.18939  1973420.0  20323.0 
1.19417  1949060.0  20143.7 
1.19896  1961240.0  20182.8 
1.20374  1955560.0  20101.6 
1.20853  1960910.0  20101.8 
1.21331  1945970.0  19997.6 
1.2181  1943050.0  19968.5 
1.22288  1942550.0  19921.0 
1.22767  1904440.0  19722.6 
1.23245  1896700.0  19616.0 
1.23724  1886450.0  19590.2 
1.24202  1876390.0  19517.9 
1.24681  1891750.0  19530.2 
1.25159  1855580.0  19319.4 
1.25638  1872590.0  19398.8 
1.26116  1853210.0  19275.4 
1.26595  1848910.0  19250.0 
1.27073  1835490.0  19149.2 
1.27552  1851680.0  19207.4 
1.2803  1851980.0  19163.1 
1.28509  1833330.0  19007.5 
1.28987  1811700.0  18900.1 
1.29466  1813050.0  18858.6 
1.29944  1823690.0  18913.2 
1.30423  1811510.0  18844.2 
1.30901  1812140.0  18775.5 
1.31379  1798030.0  18707.4 
1.31858  1798870.0  18642.9 
1.32336  1799240.0  18646.6 
1.32815  1805870.0  18670.7 
1.33293  1780720.0  18513.2 
1.33772  1760090.0  18376.7 
1.3425  1785680.0  18485.9 
1.34729  1775300.0  18394.4 
1.35207  1760970.0  18316.3 
1.35686  1732970.0  18120.8 
1.36164  1761210.0  18269.8 
1.36643  1740350.0  18151.0 
1.37121  1738490.0  18109.7 
1.376  1729060.0  18021.6 
1.38078  1725920.0  17973.0 
1.38556  1725010.0  17954.4 
1.39035  1727250.0  17959.1 
1.39513  1740450.0  18012.9 
1.39992  1727970.0  17927.6 
1.4047  1715080.0  17800.3 
1.40949  1727210.0  17804.6 
1.41427  1718860.0  17747.6 
1.41906  1700970.0  17591.6 
1.42384  1717780.0  17676.9 
1.42863  1703900.0  17531.9 
1.43341  1700530.0  17502.0 
1.43819  1684990.0  17379.3 
1.44298  1682640.0  17305.6 
1.44776  1674810.0  17241.8 
1.45255  1692200.0  17289.4 
1.45733  1710720.0  17347.8 
1.46212  1702640.0  17271.3 
1.4669  1684390.0  17141.8 
1.47168  1688280.0  17146.8 
1.47647  1654980.0  16920.6 
1.48125  1643650.0  16827.9 
1.48604  1666310.0  16916.2 
1.49082  1682580.0  16945.5 
1.49561  1658220.0  16802.2 
1.50039  1678770.0  16863.5 
1.50517  1702420.0  16978.5 
1.50996  1669970.0  16763.7 
1.51474  1630900.0  16549.0 
1.51953  1665150.0  16776.7 
1.52431  1640170.0  16704.4 
1.52909  1663880.0  16861.5 
1.53388  1658800.0  16886.7 
1.53866  1621970.0  16755.4 
1.54345  1644430.0  16908.6 
1.54823  1630080.0  16884.7 
1.55301  1625480.0  16896.3 
1.5578  1646870.0  17038.4 
1.56258  1642020.0  17047.2 
1.56737  1624310.0  17004.2 
1.57215  1601420.0  16923.3 
1.57693  1634210.0  17129.8 
1.58172  1602440.0  16995.4 
1.5865  1630160.0  17173.2 
1.59129  1611320.0  17099.1 
1.59607  1603980.0  17091.4 
1.60085  1587020.0  17031.8 
1.60564  1605120.0  17118.3 
1.61042  1593210.0  16973.2 
1.6152  1597910.0  16909.8 
1.61999  1623870.0  17010.8 
1.62477  1607090.0  16867.3 
1.62956  1606900.0  16834.3 
1.63434  1598410.0  16708.7 
1.63912  1590020.0  16605.0 
1.64391  1600990.0  16616.2 
1.64869  1601600.0  16557.9 
1.65347  1585440.0  16440.3 
1.65826  1576710.0  16344.0 
1.66304  1590040.0  16371.6 
1.66782  1576690.0  16271.2 
1.67261  1567890.0  16169.7 
1.67739  1582240.0  16180.4 
1.68217  1578490.0  16127.3 
1.68696  1581600.0  16107.2 
1.69174  1571950.0  16030.0 
1.69652  1570940.0  15972.7 
1.70131  1581250.0  15997.5 
1.70609  1583650.0  15972.6 
1.71087  1564100.0  15826.0 
1.71566  1575250.0  15839.4 
1.72044  1548100.0  15669.9 
1.72522  1568750.0  15744.9 
1.73001  1572700.0  15721.2 
1.73479  1536880.0  15496.2 
1.73957  1536100.0  15456.2 
1.74436  1566390.0  15572.0 
1.74914  1577320.0  15576.2 
1.75392  1571920.0  15553.5 
1.75871  1551890.0  15390.2 
1.76349  1535740.0  15306.5 
1.76827  1540020.0  15276.6 
1.77306  1549990.0  15287.1 
1.77784  1559530.0  15297.6 
1.78262  1541850.0  15181.3 
1.78741  1531580.0  15102.5 
1.79219  1543900.0  15157.9 
1.79697  1551330.0  15137.9 
1.80176  1547200.0  15111.3 
1.80654  1519950.0  14918.1 
1.81132  1527270.0  14921.0 
1.8161  1512260.0  14818.3 
1.82089  1513240.0  14802.3 
1.82567  1513980.0  14783.6 
1.83045  1523530.0  14786.8 
1.83524  1509340.0  14691.2 
1.84002  1497450.0  14610.0 
1.8448  1506230.0  14612.5 
1.84958  1506010.0  14598.0 
1.85437  1512350.0  14594.6 
1.85915  1512220.0  14563.1 
1.86393  1515470.0  14557.9 
1.86872  1515130.0  14528.5 
1.8735  1508960.0  14460.1 
1.87828  1525250.0  14578.1 
1.88306  1511900.0  14559.8 
1.88785  1501180.0  14567.0 
1.89263  1509240.0  14646.7 
1.89741  1521860.0  14766.1 
1.90219  1506870.0  14725.8 
1.90698  1491500.0  14689.4 
1.91176  1485410.0  14636.2 
1.91654  1494310.0  14652.4 
1.92132  1486790.0  14570.7 
1.92611  1495580.0  14598.9 
1.93089  1485440.0  14485.9 
1.93567  1479980.0  14445.4 
1.94045  1483070.0  14399.8 
1.94524  1467110.0  14288.8 
1.95002  1487370.0  14348.2 
1.9548  1480540.0  14280.5 
1.95958  1480860.0  14235.4 
1.96436  1485070.0  14218.2 
1.96915  1485440.0  14187.6 
1.97393  1485740.0  14139.2 
1.97871  1479760.0  14080.6 
1.98349  1496600.0  14118.0 
1.98828  1487540.0  14045.3 
1.99306  1483420.0  13989.2 
1.99784  1476430.0  13911.9 
2.00262  1462640.0  13828.3 
2.0074  1463130.0  13774.9 
2.01219  1464520.0  13765.7 
2.01697  1451990.0  13664.4 
2.02175  1453190.0  13642.1 
2.02653  1465420.0  13666.6 
2.03131  1474470.0  13672.8 
2.0361  1476170.0  13648.9 
2.04088  1453250.0  13508.6 
2.04566  1462400.0  13526.3 
2.05044  1454790.0  13453.7 
2.05522  1441520.0  13375.2 
2.06001  1442880.0  13347.4 
2.06479  1464920.0  13408.8 
2.06957  1450280.0  13328.2 
2.07435  1456830.0  13323.6 
2.07913  1439760.0  13218.5 
2.08391  1465080.0  13311.6 
2.0887  1451760.0  13211.1 
2.09348  1460530.0  13220.1 
2.09826  1463220.0  13199.2 
2.10304  1439950.0  13066.3 
2.10782  1447920.0  13069.7 
2.1126  1451740.0  13077.6 
2.11739  1462970.0  13089.6 
2.12217  1442960.0  12989.0 
2.12695  1443590.0  12954.7 
2.13173  1439230.0  12902.4 
2.13651  1428290.0  12828.7 
2.14129  1423060.0  12782.1 
2.14607  1435500.0  12822.1 
2.15086  1449250.0  12846.6 
2.15564  1450580.0  12841.0 
2.16042  1441160.0  12768.0 
2.1652  1425250.0  12662.0 
2.16998  1443740.0  12718.1 
2.17476  1439630.0  12678.9 
2.17954  1433490.0  12618.0 
2.18432  1436870.0  12622.8 
2.18911  1443680.0  12637.2 
2.19389  1440460.0  12578.2 
2.19867  1423480.0  12490.6 
2.20345  1429620.0  12493.4 
2.20823  1452610.0  12571.7 
2.21301  1416550.0  12388.5 
2.21779  1434250.0  12439.7 
2.22257  1448510.0  12476.8 
2.22735  1427540.0  12363.1 
2.23213  1422980.0  12320.5 
2.23692  1426220.0  12315.2 
2.2417  1419820.0  12267.9 
2.24648  1419930.0  12243.2 
2.25126  1433370.0  12282.1 
2.25604  1434480.0  12262.6 
2.26082  1419910.0  12179.7 
2.2656  1417680.0  12147.3 
2.27038  1426530.0  12166.2 
2.27516  1401590.0  12042.5 
2.27994  1431430.0  12146.6 
2.28472  1430250.0  12108.8 
2.2895  1409690.0  12011.6 
2.29428  1431070.0  12083.6 
2.29907  1410180.0  11966.2 
2.30385  1411600.0  11948.7 
2.30863  1410930.0  11937.1 
2.31341  1409410.0  11883.8 
2.31819  1398360.0  11801.9 
2.32297  1405890.0  11813.2 
2.32775  1403100.0  11739.3 
2.33253  1400690.0  11688.9 
2.33731  1399680.0  11646.3 
2.34209  1407500.0  11659.2 
2.34687  1395910.0  11587.3 
2.35165  1413500.0  11640.7 
2.35643  1415050.0  11628.9 
2.36121  1402790.0  11566.2 
2.36599  1424270.0  11650.1 
2.37077  1418790.0  11626.3 
2.37555  1403640.0  11574.1 
2.38033  1398540.0  11553.6 
2.38511  1386300.0  11506.7 
2.38989  1400970.0  11570.2 
2.39467  1401910.0  11558.2 
2.39945  1402550.0  11547.3 
2.40423  1393990.0  11488.8 
2.40901  1401140.0  11506.7 
2.41379  1405150.0  11494.9 
2.41857  1408280.0  11495.4 
2.42335  1399160.0  11437.0 
2.42813  1408010.0  11453.8 
2.43291  1376350.0  11305.0 
2.43769  1378150.0  11302.1 
2.44247  1386010.0  11315.9 
2.44725  1378090.0  11262.9 
2.45203  1393270.0  11303.6 
2.45681  1401540.0  11327.0 
2.46159  1389700.0  11265.2 
2.46637  1364990.0  11134.9 
2.47115  1367540.0  11135.8 
2.47593  1394560.0  11228.5 
2.48071  1393050.0  11207.8 
2.48549  1377980.0  11129.5 
2.49027  1365470.0  11059.4 
2.49505  1378350.0  11094.0 
2.49983  1385670.0  11104.6 
2.5046  1387880.0  11098.8 
2.50938  1387210.0  11078.8 
2.51416  1387380.0  11065.2 
2.51894  1392750.0  11070.6 
2.52372  1384030.0  11016.0 
2.5285  1379620.0  10985.9 
2.53328  1377160.0  10957.4 
2.53806  1384040.0  10989.2 
2.54284  1359920.0  10918.6 
2.54762  1360290.0  10941.8 
2.5524  1384060.0  11060.1 
2.55718  1369900.0  11019.9 
2.56196  1379940.0  11086.2 
2.56673  1374460.0  11086.2 
2.57151  1363530.0  11064.7 
2.57629  1361230.0  11070.8 
2.58107  1371550.0  11130.5 
2.58585  1368110.0  11130.9 
2.59063  1364050.0  11137.7 
2.59541  1370250.0  11182.2 
2.60019  1380270.0  11238.7 
2.60497  1372650.0  11228.6 
2.60974  1382220.0  11282.0 
2.61452  1354870.0  11184.7 
2.6193  1363250.0  11210.9 
2.62408  1374240.0  11218.7 
2.62886  1367000.0  11165.6 
2.63364  1371200.0  11149.7 
2.63842  1366400.0  11106.2 
2.6432  1384890.0  11152.7 
2.64797  1369740.0  11077.1 
2.65275  1383680.0  11108.8 
2.65753  1363000.0  10994.0 
2.66231  1363290.0  10967.4 
2.66709  1371150.0  10975.6 
2.67187  1356430.0  10906.8 
2.67664  1366420.0  10916.2 
2.68142  1359980.0  10874.8 
2.6862  1374740.0  10909.7 
2.69098  1352550.0  10803.2 
2.69576  1353070.0  10781.7 
2.70054  1373310.0  10841.9 
2.70531  1390150.0  10894.3 
2.71009  1360740.0  10759.2 
2.71487  1365260.0  10761.2 
2.71965  1364790.0  10737.4 
2.72443  1357400.0  10670.1 
2.7292  1345940.0  10606.1 
2.73398  1359460.0  10636.4 
2.73876  1364770.0  10636.0 
2.74354  1376760.0  10664.3 
2.74832  1371480.0  10623.2 
2.75309  1357090.0  10534.6 
2.75787  1359890.0  10538.6 
2.76265  1355390.0  10490.6 
2.76743  1357950.0  10482.1 
2.77221  1352600.0  10437.6 
2.77698  1354720.0  10432.5 
2.78176  1376910.0  10491.1 
2.78654  1370500.0  10450.9 
2.79132  1356710.0  10372.5 
2.79609  1364710.0  10381.0 
2.80087  1364170.0  10364.3 
2.80565  1364930.0  10344.8 
2.81043  1367640.0  10341.7 
2.8152  1367100.0  10315.2 
2.81998  1364240.0  10285.0 
2.82476  1357980.0  10246.6 
2.82954  1363010.0  10236.9 
2.83431  1373450.0  10270.8 
2.83909  1349230.0  10158.0 
2.84387  1355560.0  10168.2 
2.84865  1353440.0  10139.8 
2.85342  1354270.0  10121.2 
2.8582  1359150.0  10116.8 
2.86298  1358250.0  10094.4 
2.86775  1354160.0  10071.7 
2.87253  1366540.0  10093.4 
2.87731  1372400.0  10109.2 
2.88209  1351700.0  10004.0 
2.88686  1353240.0  9994.9 
2.89164  1354220.0  9977.06 
2.89642  1362750.0  9997.83 
2.90119  1364900.0  9984.2 
2.90597  1356210.0  9938.09 
2.91075  1355660.0  9920.19 
2.91552  1335880.0  9831.24 
2.9203  1341970.0  9839.12 
2.92508  1365230.0  9905.25 
2.92985  1339390.0  9797.66 
2.93463  1345820.0  9799.09 
2.93941  1358860.0  9839.7 
2.94418  1343330.0  9766.41 
2.94896  1355970.0  9788.75 
2.95374  1359760.0  9790.09 
2.95851  1351560.0  9746.56 
2.96329  1345070.0  9701.6 
2.96807  1357720.0  9739.05 
2.97284  1363310.0  9737.13 
2.97762  1354180.0  9694.98 
2.98239  1370790.0  9741.17 
2.98717  1347570.0  9642.47 
2.99195  1336430.0  9580.86 
2.99672  1336390.0  9571.0 
3.0015  1332360.0  9537.95 
3.00628  1343780.0  9565.71 
3.01105  1350520.0  9575.74 
3.01583  1350360.0  9562.22 
